Time [s]	Current [A]	Voltage [V]	
0.001770	67.800000	0.000002
0.501285	67.780000	0.031751
1.001302	67.750000	0.031749
1.501335	67.720000	0.031748
2.001358	67.720000	0.031745
2.501390	67.700000	0.031742
3.001422	67.700000	0.031740
3.501451	67.680000	0.031738
4.001472	67.700000	0.031736
4.501510	67.640000	0.031733
5.001534	67.610000	0.031682
5.501566	67.600000	0.031703
6.001589	67.660000	0.031701
6.501626	67.680000	0.031715
7.001677	67.680000	0.031717
7.501678	67.680000	0.031717
8.001736	67.680000	0.031716
8.501736	67.680000	0.031714
9.001771	67.680000	0.031714
9.501793	67.670000	0.031712
10.001819	67.670000	0.031713
10.501850	67.660000	0.031712
11.001879	67.660000	0.031709
11.501911	67.660000	0.031707
12.001937	67.660000	0.031706
12.501969	67.660000	0.031705
13.001992	67.650000	0.031705
13.501036	67.650000	0.031703
14.001052	67.640000	0.031702
14.501119	67.640000	0.031701
15.001112	67.630000	0.031700
15.501138	67.630000	0.031699
16.001280	67.630000	0.031698
16.501201	67.630000	0.031696
17.001233	67.620000	0.031695
17.501256	67.630000	0.031695
18.001283	67.620000	0.031693
18.501318	67.620000	0.031692
19.001340	67.630000	0.031692
19.501371	67.610000	0.031689
20.001399	67.620000	0.031690
20.501422	67.600000	0.031688
21.001457	67.620000	0.031686
21.501486	67.620000	0.031686
22.001519	67.620000	0.031685
22.501545	67.610000	0.031684
23.001577	67.620000	0.031683
23.501604	67.620000	0.031682
24.001627	67.620000	0.031681
24.501675	67.610000	0.031680
25.001687	67.610000	0.031679
25.501720	67.600000	0.031679
26.001747	67.600000	0.031678
26.501775	67.600000	0.031677
27.001804	67.600000	0.031676
27.501846	67.600000	0.031675
28.001853	67.600000	0.031674
28.501878	67.600000	0.031673
29.001911	67.590000	0.031673
29.501947	67.590000	0.031672
30.001967	67.590000	0.031671
30.501996	67.580000	0.031669
31.001028	67.580000	0.031669
31.501057	67.570000	0.031668
32.001159	67.570000	0.031667
32.501107	67.580000	0.031665
33.001133	67.570000	0.031665
33.501157	67.560000	0.031664
34.001188	67.560000	0.031664
34.501207	67.570000	0.031664
35.001246	67.580000	0.031664
35.501266	67.560000	0.031662
36.001295	67.560000	0.031660
36.501327	67.560000	0.031660
37.001354	67.550000	0.031660
37.501380	67.570000	0.031658
38.001411	67.560000	0.031658
38.501439	67.560000	0.031657
39.001471	67.560000	0.031656
39.501495	67.560000	0.031656
40.001547	67.560000	0.031653
40.501553	67.560000	0.031654
41.001581	67.560000	0.031653
41.501615	67.560000	0.031652
42.001641	67.550000	0.031652
42.501666	67.550000	0.031650
43.001699	67.550000	0.031650
43.501726	67.520000	0.031614
44.001760	67.520000	0.031628
44.501783	67.560000	0.031650
45.001810	67.540000	0.031653
45.501839	67.590000	0.031663
46.001868	67.530000	0.031665
46.501898	67.570000	0.031662
47.001927	67.510000	0.031642
47.501980	67.540000	0.031645
48.001988	67.540000	0.031653
48.501016	67.460000	0.031637
49.001065	67.520000	0.031632
49.633975	67.520000	0.031640
50.134106	67.550000	0.031632
50.634134	67.580000	0.031658
51.134163	67.570000	0.031662
51.634194	67.530000	0.031660
52.134223	67.010000	0.031499
52.634257	67.300000	0.031504
53.134284	67.030000	0.031411
53.634307	66.440000	0.030947
54.134354	66.340000	0.030981
54.763162	66.450000	0.031127
55.262403	66.350000	0.031162
55.762437	66.430000	0.031116
56.262467	65.830000	0.030868
56.762496	65.770000	0.030634
57.262518	66.130000	0.030957
57.762547	66.140000	0.030942
58.262604	66.520000	0.030890
58.762603	67.560000	0.031625
59.262637	67.580000	0.031656
59.762669	67.600000	0.031651
60.262696	67.630000	0.031659
60.762729	67.640000	0.031678
61.262744	67.660000	0.031685
61.762786	67.680000	0.031687
62.262813	67.680000	0.031690
62.762832	67.700000	0.031691
63.262871	67.690000	0.031692
63.762899	67.700000	0.031692
64.262934	67.690000	0.031692
64.762949	67.690000	0.031691
65.262975	67.690000	0.031691
65.762010	67.690000	0.031690
66.262028	67.690000	0.031690
66.762061	67.700000	0.031690
67.262108	67.690000	0.031689
67.762121	67.680000	0.031690
68.262148	67.680000	0.031689
68.762172	67.680000	0.031688
69.262206	67.680000	0.031687
69.762234	67.680000	0.031687
70.262265	67.670000	0.031687
70.762298	67.670000	0.031686
71.262327	67.680000	0.031686
71.762342	67.680000	0.031687
72.262372	67.680000	0.031686
72.762405	67.680000	0.031684
73.262429	67.680000	0.031684
73.762488	67.680000	0.031684
74.262485	67.680000	0.031683
74.762520	67.670000	0.031683
75.262560	67.680000	0.031682
75.762576	67.680000	0.031682
76.262587	67.680000	0.031681
76.762630	67.680000	0.031681
77.262661	67.680000	0.031681
77.762687	67.670000	0.031680
78.262715	67.670000	0.031679
78.762745	67.670000	0.031679
79.262781	67.660000	0.031678
79.762804	67.670000	0.031678
80.262830	67.660000	0.031676
80.762873	67.660000	0.031676
81.262888	67.660000	0.031676
81.762955	67.660000	0.031675
82.419132	67.660000	0.031675
82.918981	67.650000	0.031675
83.418025	67.660000	0.031674
83.918045	67.640000	0.031673
84.418071	67.640000	0.031672
84.918104	67.640000	0.031672
85.418149	67.650000	0.031671
85.918154	67.660000	0.031671
86.418192	67.650000	0.031670
86.918214	67.650000	0.031669
87.418259	67.650000	0.031671
87.918283	67.650000	0.031669
88.418309	67.650000	0.031668
88.918332	67.640000	0.031668
89.418356	67.650000	0.031667
89.918390	67.650000	0.031667
90.418415	67.640000	0.031666
90.918452	67.640000	0.031665
91.418490	67.620000	0.031665
91.918500	67.640000	0.031665
92.418535	67.630000	0.031664
92.918562	67.630000	0.031663
93.418588	67.640000	0.031663
93.918617	67.640000	0.031663
94.418646	67.630000	0.031662
94.918686	67.640000	0.031661
95.418723	67.640000	0.031661
95.918741	67.640000	0.031660
96.418769	67.630000	0.031660
96.918794	67.630000	0.031658
97.418813	67.640000	0.031658
97.918846	67.620000	0.031658
98.664877	67.620000	0.031658
99.164913	67.620000	0.031657
99.664957	67.620000	0.031656
100.164970	67.620000	0.031656
100.665001	67.620000	0.031655
101.164027	67.620000	0.031655
101.664057	67.620000	0.031654
102.164087	67.620000	0.031654
102.664118	67.610000	0.031653
103.164155	67.600000	0.031653
103.664230	67.600000	0.031652
104.164203	67.600000	0.031651
104.664235	67.620000	0.031651
105.164256	67.600000	0.031650
105.664288	67.600000	0.031651
106.164320	67.620000	0.031649
106.664343	67.610000	0.031649
107.164370	67.620000	0.031648
107.664413	67.610000	0.031648
108.164427	67.600000	0.031648
108.664458	67.600000	0.031648
109.164503	67.600000	0.031647
109.664518	67.600000	0.031646
110.164547	67.590000	0.031646
110.664575	67.590000	0.031645
111.164628	67.590000	0.031645
111.796793	67.600000	0.031644
112.296664	67.590000	0.031644
112.796712	67.590000	0.031642
113.296734	67.600000	0.031642
113.796763	67.600000	0.031641
114.296785	67.600000	0.031641
114.796820	67.600000	0.031641
115.296838	67.600000	0.031642
115.796894	67.590000	0.031639
116.296929	67.590000	0.031640
116.796937	67.590000	0.031639
117.296960	67.590000	0.031638
117.796991	67.590000	0.031638
118.296016	67.580000	0.031636
118.796042	67.590000	0.031637
119.296068	67.580000	0.031636
119.796112	67.580000	0.031635
120.296124	67.570000	0.031636
120.796157	67.570000	0.031635
121.296179	67.580000	0.031634
121.796214	67.580000	0.031634
122.296239	67.580000	0.031632
122.796301	67.580000	0.031632
123.296292	67.580000	0.031632
123.796346	67.580000	0.031631
124.296381	67.570000	0.031631
124.796391	67.580000	0.031631
125.296417	67.570000	0.031630
125.796518	67.570000	0.031629
126.296479	67.570000	0.031629
126.796495	67.570000	0.031628
127.296523	67.560000	0.031628
127.796576	67.570000	0.031628
128.296582	67.570000	0.031627
128.796613	67.560000	0.031626
129.296655	67.570000	0.031626
129.796671	67.570000	0.031626
130.296697	67.560000	0.031624
130.796736	67.550000	0.031624
131.296759	67.560000	0.031623
131.796800	67.550000	0.031623
132.296846	67.550000	0.031622
132.927402	67.560000	0.031622
133.426875	67.540000	0.031621
133.926908	67.540000	0.031620
134.426940	67.550000	0.031620
134.926965	67.560000	0.031622
135.426993	67.560000	0.031620
135.926035	67.550000	0.031619
136.426052	67.560000	0.031619
136.926079	67.550000	0.031619
137.426105	67.560000	0.031617
137.926146	67.540000	0.031616
138.426166	67.540000	0.031617
138.926216	67.550000	0.031614
139.569231	67.540000	0.031614
140.069281	67.540000	0.031614
140.569285	67.540000	0.031614
141.069313	67.540000	0.031614
141.569346	67.540000	0.031614
142.069374	67.540000	0.031612
142.569406	67.540000	0.031613
143.069429	67.530000	0.031611
143.569516	67.540000	0.031610
144.069504	67.520000	0.031611
144.569517	67.520000	0.031611
145.069662	67.520000	0.031609
145.569587	67.520000	0.031609
146.069603	67.530000	0.031608
146.569631	67.520000	0.031607
147.069662	67.520000	0.031608
147.569699	67.520000	0.031606
148.069744	67.520000	0.031607
148.569749	67.530000	0.031607
149.069774	67.510000	0.031606
149.569805	67.520000	0.031606
150.069838	67.530000	0.031604
150.569864	67.520000	0.031604
151.069896	67.520000	0.031604
151.569924	67.520000	0.031604
152.069965	67.520000	0.031602
152.569978	67.520000	0.031601
153.070003	67.520000	0.031602
153.569033	67.520000	0.031601
154.069060	67.520000	0.031601
154.569091	67.520000	0.031600
155.069118	67.520000	0.031600
155.569150	67.510000	0.031600
156.069192	67.520000	0.031598
156.569209	67.510000	0.031598
157.069235	67.520000	0.031598
157.569261	67.500000	0.031597
158.069298	67.510000	0.031598
158.569322	67.490000	0.031597
159.069351	67.490000	0.031596
159.569378	67.500000	0.031596
160.069422	67.490000	0.031595
160.569437	67.490000	0.031594
161.069465	67.500000	0.031593
161.569505	67.500000	0.031594
162.069529	67.490000	0.031593
162.569551	67.490000	0.031594
163.069577	67.490000	0.031592
163.569606	67.500000	0.031591
164.069651	67.500000	0.031591
164.569664	67.480000	0.031591
165.069693	67.480000	0.031590
165.569722	67.500000	0.031589
166.069749	67.490000	0.031589
166.569780	67.490000	0.031589
167.069809	67.480000	0.031589
167.569842	67.490000	0.031587
168.069885	67.490000	0.031588
168.569932	67.490000	0.031587
169.069922	67.480000	0.031587
169.569953	67.490000	0.031586
170.069981	67.480000	0.031585
170.570011	67.490000	0.031585
171.069040	67.480000	0.031584
171.569064	67.490000	0.031585
172.069100	67.490000	0.031583
172.569122	67.490000	0.031584
173.069151	67.480000	0.031583
173.569182	67.480000	0.031582
174.069210	67.480000	0.031583
174.569241	67.480000	0.031581
175.069270	67.480000	0.031580
175.569300	67.480000	0.031581
176.069334	67.460000	0.031580
176.569353	67.470000	0.031579
177.069382	67.460000	0.031579
177.569424	67.460000	0.031578
178.069532	67.450000	0.031578
178.569470	67.460000	0.031579
179.069501	67.470000	0.031577
179.569526	67.460000	0.031578
180.069562	67.450000	0.031576
180.569586	67.450000	0.031577
181.069612	67.460000	0.031576
181.569642	67.460000	0.031575
182.069667	67.460000	0.031575
182.569701	67.470000	0.031574
183.069728	67.460000	0.031574
183.569753	67.460000	0.031574
184.069794	67.460000	0.031573
184.569822	67.460000	0.031572
185.069850	67.460000	0.031572
185.569878	67.460000	0.031571
186.069901	67.460000	0.031571
186.569935	67.460000	0.031570
187.069961	67.450000	0.031571
187.570002	67.460000	0.031571
188.070022	67.450000	0.031570
188.569043	67.460000	0.031569
189.069074	67.440000	0.031569
189.569099	67.450000	0.031568
190.069135	67.460000	0.031567
190.569157	67.440000	0.031568
191.069188	67.450000	0.031567
191.569216	67.430000	0.031566
192.069252	67.440000	0.031566
192.569275	67.430000	0.031565
193.069303	67.430000	0.031565
193.569348	67.430000	0.031563
194.069359	67.430000	0.031563
194.569387	67.440000	0.031562
195.069421	67.430000	0.031562
195.569443	67.430000	0.031562
196.069483	67.430000	0.031561
196.569501	67.420000	0.031562
197.069539	67.440000	0.031561
197.569565	67.420000	0.031560
198.069588	67.420000	0.031560
198.569622	67.430000	0.031561
199.069648	67.440000	0.031559
199.569688	67.430000	0.031558
200.069710	67.430000	0.031557
200.569731	67.430000	0.031558
201.069768	67.430000	0.031558
201.569791	67.430000	0.031557
202.069824	67.430000	0.031556
202.569852	67.430000	0.031556
203.069881	67.430000	0.031555
203.569913	67.430000	0.031555
204.069946	67.420000	0.031554
204.569989	67.420000	0.031555
205.070000	67.420000	0.031554
205.570016	67.420000	0.031554
206.069049	67.430000	0.031552
206.569084	67.420000	0.031552
207.069100	67.420000	0.031552
207.569139	67.380000	0.031538
208.069173	67.380000	0.031534
208.569197	67.390000	0.031545
209.069225	67.380000	0.031545
209.569305	67.380000	0.031539
210.069280	67.390000	0.031546
210.569304	67.390000	0.031546
211.069372	67.410000	0.031551
211.733678	67.400000	0.031553
212.233407	67.380000	0.031544
212.733429	67.380000	0.031541
213.233454	67.400000	0.031544
213.733488	67.390000	0.031545
214.233517	67.390000	0.031544
214.733551	67.400000	0.031545
215.233572	67.400000	0.031545
215.733605	67.410000	0.031545
216.233639	67.400000	0.031546
216.733657	67.400000	0.031546
217.233688	67.400000	0.031545
217.733716	67.400000	0.031545
218.233748	67.400000	0.031545
218.733774	67.400000	0.031545
219.233804	67.390000	0.031544
219.733832	67.380000	0.031544
220.233874	67.380000	0.031544
220.733890	67.380000	0.031544
221.233916	67.400000	0.031543
221.733952	67.380000	0.031543
222.233971	67.380000	0.031542
222.734008	67.400000	0.031542
223.233042	67.400000	0.031543
223.733060	67.400000	0.031541
224.233204	67.400000	0.031542
224.733118	67.390000	0.031543
225.233149	67.400000	0.031541
225.733182	67.400000	0.031540
226.233206	67.400000	0.031541
226.733265	67.390000	0.031540
227.233262	67.380000	0.031540
227.733294	67.390000	0.031539
228.233436	67.390000	0.031539
228.733351	67.370000	0.031539
229.233375	67.380000	0.031538
229.733408	67.380000	0.031538
230.233437	67.380000	0.031538
230.733466	67.380000	0.031537
231.233495	67.380000	0.031537
231.733534	67.380000	0.031536
232.233728	67.390000	0.031536
232.733579	67.380000	0.031536
233.233601	67.380000	0.031536
233.733636	67.380000	0.031537
234.233660	67.380000	0.031536
234.733719	67.380000	0.031534
235.233718	67.380000	0.031534
235.733743	67.380000	0.031534
236.233780	67.380000	0.031533
236.733806	67.360000	0.031533
237.233830	67.360000	0.031533
237.733863	67.360000	0.031533
238.233889	67.360000	0.031531
238.733920	67.370000	0.031531
239.233945	67.380000	0.031531
239.733979	67.370000	0.031530
240.234010	67.370000	0.031531
240.733044	67.370000	0.031531
241.233082	67.370000	0.031529
241.733096	67.370000	0.031529
242.233110	67.370000	0.031529
242.733168	67.370000	0.031528
243.233175	67.380000	0.031528
243.733208	67.370000	0.031527
244.233242	67.360000	0.031527
244.733265	67.360000	0.031527
245.233288	67.360000	0.031526
245.733324	67.360000	0.031526
246.233347	67.360000	0.031525
246.733381	67.360000	0.031525
247.233410	67.360000	0.031525
247.733440	67.350000	0.031525
248.233472	67.360000	0.031525
248.733492	67.340000	0.031524
249.233524	67.360000	0.031523
249.733551	67.340000	0.031523
250.233581	67.350000	0.031524
250.733611	67.360000	0.031523
251.233633	67.340000	0.031522
251.733670	67.360000	0.031522
252.233696	67.340000	0.031522
252.733727	67.340000	0.031521
253.233742	67.340000	0.031521
253.733785	67.340000	0.031521
254.233796	67.350000	0.031520
254.733839	67.360000	0.031519
255.233861	67.350000	0.031520
255.733895	67.340000	0.031518
256.233937	67.340000	0.031518
256.733955	67.340000	0.031518
257.233970	67.340000	0.031517
257.734017	67.340000	0.031518
258.233034	67.330000	0.031516
258.733069	67.330000	0.031516
259.233081	67.330000	0.031516
259.733125	67.340000	0.031516
260.233169	67.330000	0.031515
260.733184	67.330000	0.031514
261.233206	67.330000	0.031515
261.733236	67.320000	0.031514
262.233262	67.340000	0.031515
262.733295	67.330000	0.031514
263.233324	67.340000	0.031513
263.733357	67.340000	0.031514
264.233398	67.340000	0.031512
264.733413	67.340000	0.031512
265.233436	67.340000	0.031511
265.733573	67.330000	0.031512
266.233494	67.330000	0.031511
266.733529	67.340000	0.031512
267.233552	67.340000	0.031511
267.733582	67.330000	0.031510
268.233631	67.340000	0.031509
268.733647	67.330000	0.031509
269.233665	67.330000	0.031510
269.733691	67.330000	0.031509
270.233721	67.330000	0.031508
270.733755	67.340000	0.031509
271.233779	67.320000	0.031508
271.733812	67.310000	0.031508
272.233855	67.310000	0.031506
272.733873	67.320000	0.031506
273.233899	67.320000	0.031506
273.733931	67.310000	0.031506
274.233978	67.320000	0.031506
274.733986	67.310000	0.031506
275.234010	67.320000	0.031505
275.733040	67.310000	0.031506
276.233083	67.310000	0.031504
276.733104	67.310000	0.031504
277.233124	67.310000	0.031503
277.733156	67.320000	0.031503
278.233183	67.300000	0.031503
278.733216	67.300000	0.031503
279.233239	67.310000	0.031502
279.733277	67.300000	0.031502
280.233312	67.320000	0.031502
280.733330	67.310000	0.031501
281.233358	67.300000	0.031501
281.733384	67.310000	0.031501
282.233437	67.310000	0.031501
282.733437	67.310000	0.031499
283.233548	67.320000	0.031500
283.733533	67.310000	0.031500
284.233536	67.310000	0.031499
284.733562	67.310000	0.031500
285.233583	67.310000	0.031499
285.733616	67.300000	0.031498
286.233641	67.300000	0.031497
286.733671	67.300000	0.031498
287.233698	67.290000	0.031497
287.733732	67.300000	0.031497
288.233779	67.300000	0.031496
288.733789	67.300000	0.031495
289.233827	67.300000	0.031495
289.733854	67.290000	0.031495
290.233963	67.290000	0.031495
290.733906	67.290000	0.031495
291.233933	67.290000	0.031495
291.733959	67.290000	0.031494
292.234004	67.290000	0.031493
292.734017	67.290000	0.031494
293.233048	67.290000	0.031493
293.733076	67.300000	0.031492
294.233102	67.300000	0.031492
294.733130	67.300000	0.031492
295.233163	67.290000	0.031492
295.733192	67.280000	0.031491
296.233234	67.300000	0.031491
296.733286	67.290000	0.031490
297.233276	67.280000	0.031491
297.733306	67.280000	0.031491
298.233334	67.280000	0.031490
298.733365	67.290000	0.031489
299.233390	67.280000	0.031490
299.733416	67.270000	0.031489
300.233466	67.270000	0.031488
300.733476	67.280000	0.031488
301.233508	67.280000	0.031487
301.733530	67.280000	0.031487
302.233562	67.270000	0.031487
302.733596	67.270000	0.031487
303.233619	67.270000	0.031485
303.733653	67.280000	0.031486
304.233696	67.280000	0.031485
304.733709	67.280000	0.031484
305.233735	67.280000	0.031485
305.733764	67.280000	0.031485
306.233820	67.280000	0.031485
306.733821	67.280000	0.031485
307.233886	67.280000	0.031483
307.733876	67.280000	0.031483
308.233930	67.280000	0.031483
308.733939	67.280000	0.031482
309.233961	67.280000	0.031482
309.733996	67.280000	0.031482
310.234023	67.270000	0.031482
310.733061	67.280000	0.031481
311.233082	67.280000	0.031482
311.733107	67.280000	0.031480
312.233158	67.260000	0.031481
312.733164	67.270000	0.031481
313.233199	67.260000	0.031479
313.733228	67.270000	0.031480
314.233253	67.270000	0.031479
314.733286	67.260000	0.031479
315.233351	67.260000	0.031478
315.733345	67.260000	0.031479
316.233613	67.260000	0.031478
316.733396	67.260000	0.031477
317.233416	67.250000	0.031478
317.733455	67.250000	0.031477
318.233477	67.260000	0.031477
318.733510	67.260000	0.031476
319.233535	67.260000	0.031476
319.733564	67.260000	0.031476
320.233608	67.260000	0.031475
320.733622	67.260000	0.031475
321.233651	67.260000	0.031476
321.733740	67.260000	0.031475
322.233705	67.260000	0.031475
322.733739	67.260000	0.031474
323.233766	67.250000	0.031474
323.733801	67.240000	0.031474
324.233838	67.240000	0.031473
324.733853	67.260000	0.031474
325.233876	67.240000	0.031473
325.733909	67.250000	0.031473
326.233942	67.240000	0.031471
326.733967	67.240000	0.031471
327.234091	67.260000	0.031472
327.734042	67.240000	0.031472
328.233068	67.250000	0.031471
328.733099	67.250000	0.031471
329.233099	67.250000	0.031469
329.733148	67.260000	0.031469
330.233167	67.250000	0.031470
330.733198	67.250000	0.031469
331.233246	67.250000	0.031469
331.733250	67.250000	0.031469
332.233298	67.250000	0.031470
332.733312	67.250000	0.031468
333.233339	67.240000	0.031467
333.733370	67.250000	0.031468
334.233393	67.250000	0.031468
334.733427	67.250000	0.031467
335.233452	67.250000	0.031467
335.733487	67.240000	0.031467
336.233522	67.230000	0.031466
336.733546	67.230000	0.031466
337.233570	67.240000	0.031466
337.733603	67.240000	0.031466
338.233624	67.230000	0.031466
338.733655	67.230000	0.031464
339.233703	67.220000	0.031465
339.733713	67.240000	0.031464
340.233754	67.230000	0.031464
340.733770	67.220000	0.031464
341.233794	67.230000	0.031463
341.733832	67.220000	0.031463
342.233853	67.220000	0.031463
342.733891	67.170000	0.031451
343.233911	67.160000	0.031433
343.733943	67.160000	0.031422
344.233990	67.180000	0.031436
344.733999	67.190000	0.031440
345.234026	67.140000	0.031404
345.733057	67.160000	0.031420
346.233084	67.170000	0.031429
346.733113	67.180000	0.031433
347.233139	67.170000	0.031429
347.733176	67.100000	0.031434
348.233215	67.100000	0.031388
348.733231	67.140000	0.031406
349.233255	67.150000	0.031417
349.733299	67.150000	0.031420
350.233311	67.160000	0.031423
350.733344	67.160000	0.031423
351.233371	67.180000	0.031429
351.733401	67.160000	0.031430
352.233445	67.180000	0.031431
352.733460	67.170000	0.031430
353.233485	67.180000	0.031431
353.733533	67.170000	0.031432
354.233542	67.160000	0.031432
354.733599	67.140000	0.031407
355.233600	67.150000	0.031414
355.733633	67.150000	0.031416
356.233702	67.160000	0.031418
356.733687	67.160000	0.031420
357.233713	67.170000	0.031419
357.733745	67.160000	0.031419
358.233772	67.160000	0.031420
358.733805	67.160000	0.031415
359.233830	67.170000	0.031419
359.733863	67.180000	0.031421
360.233896	67.170000	0.031422
360.733916	67.160000	0.031422
361.233942	67.180000	0.031422
361.733977	67.180000	0.031423
362.234002	67.180000	0.031422
362.734062	67.180000	0.031421
363.233062	67.180000	0.031422
363.733086	67.170000	0.031422
364.233211	67.180000	0.031422
364.733147	67.180000	0.031421
365.233194	67.170000	0.031421
365.733208	67.170000	0.031420
366.233228	67.170000	0.031419
366.733263	67.180000	0.031420
367.233293	67.160000	0.031418
367.733332	67.170000	0.031419
368.233355	67.170000	0.031418
368.733380	67.170000	0.031418
369.233401	67.160000	0.031418
369.733437	67.160000	0.031419
370.233464	67.160000	0.031419
370.733492	67.160000	0.031419
371.233520	67.160000	0.031418
371.733549	67.150000	0.031417
372.233610	67.150000	0.031417
372.733624	67.160000	0.031417
373.233634	67.150000	0.031416
373.733668	67.150000	0.031417
374.233690	67.150000	0.031417
374.733726	67.150000	0.031417
375.233745	67.150000	0.031416
375.733777	67.160000	0.031415
376.233815	67.150000	0.031416
376.733835	67.150000	0.031415
377.233858	67.160000	0.031415
377.733891	67.160000	0.031416
378.233922	67.160000	0.031415
378.733952	67.160000	0.031415
379.233977	67.160000	0.031415
379.734010	67.160000	0.031415
380.234071	67.160000	0.031414
380.733062	67.160000	0.031414
381.233112	67.160000	0.031413
381.733113	67.160000	0.031414
382.233148	67.160000	0.031414
